package edu.scut.se.lee.util;
/******************************************************************************
 *  Compilation:  javac FFT.java
 *  Execution:    java FFT N
 *  Dependencies: Complex.java
 *
 *  Compute the FFT and inverse FFT of a length N complex sequence.
 *  Bare bones implementation that runs in O(N log N) time. Our goal
 *  is to optimize the clarity of the code, rather than performance.
 *
 *  Limitations
 *  -----------
 *   -  assumes N is a power of 2
 *
 *   -  not the most memory efficient algorithm (because it uses
 *      an object type for representing complex numbers and because
 *      it re-allocates memory for the subarray, instead of doing
 *      in-place or reusing a single temporary array)
 *
 ******************************************************************************/

public class FFT {

    private double[] xConv;//对x[n]进行二进制倒序排列的结果
    public double[] result;
    public int count;

    public FFT(double[] x){

        //int[] x;	存放采样值的数组
        int n,m,j;
        n = x.length;
        m = 0;
        j = 1;
        if(n < 1) {
            System.out.println("采样序列的个数不能小于1。当前为" + n);//保证采样序列的个数介于1到POINT_COUNT之间
            return;
        }
        else if(n>POINT_COUNT){
            double cutArr[] = new double[POINT_COUNT];
            for (int i = 0; i < POINT_COUNT; i++) {
                cutArr[i] = x[i];
            }
            x = cutArr;
        }
        for(int i=1;i<=Math.log(POINT_COUNT)/Math.log(2);i++){
            j *= 2;
            m ++;
            if(j >= n) break;
        }

        xConv = new double[j];						//初始化xConv
        for(int i=0;i<n;i++)
            xConv[i] = x[i];

        if(j > n)									//xConv补零
            for(int i=n;i<j;i++)
                xConv[i] = 0;

        i2Sort(xConv,m);							//将xConv进行二进制倒序排序
        System.out.println("x[n]共有" + x.length + '(' + m + "阶)" + "个采样值！" + "补零个数为：" + (j - n) + '\n');
        count = (int)Math.pow(2,m-1);
        result = myFFT(xConv,m);
    }

    /*
    * 方法名：i2Sort
    * 功能：二进制倒序排序，在进行基2-FFT蝶形算法前，可以用到此算法。
    * 参数：
    * doubl[] xConv2;需要排序的数组
    * int m;xConv2中元素所占2进制位宽
    * 返回值：void
    */
    private void i2Sort(double[] xConv2, int m) {
        int[] index = new int[xConv2.length];		//index数组用于，倒序索引
        int[] bits = new int[m];
        double[] temp = new double[xConv2.length];

        for(int i = 0;i < xConv2.length; i++)		//xConv2的原序映像
            temp[i] = xConv2[i];

        for(int i=0;i<index.length;i++){
            index[i] = i;							//第i个位置，倒序前的值为i
            for(int j=0;j<m;j++){
                bits[j] = index[i] - index[i]/2*2;	//提取index[i]的第j位二进制的值
                index[i] /= 2;
            }
            index[i] = 0;							//清零第i个位置的值
            for(int j = m,power = 1;j > 0;j --){
                index[i] += bits[j-1]*power;		//第i个位置，倒序后的位置
                power *= 2;
            }
            //System.out.println(index[i]);			//倒序效果预览
        }

        for(int i=0;i<xConv2.length;i++)			//倒序实现
            xConv2[i] = temp[index[i]];

    }

    /*
    * 方法名：myFFT
    * 功能：FFT算法
    * 参数：
    * double[] xConv2;	补零并进行二进制倒序后的x[n]
    * int m;	m = log2(n),n为采样个数
    * 返回值：void
    */
    private double[] myFFT(double[] xConv2,int m) {
        int divBy;									//divBy等分
        double[] Xr,Xi,Wr,Wi;						//分别表示：FFT结果的实部和虚部、旋转因子的实部和虚部
        double[] tempXr,tempXi;						//蝶形结果暂存器
        int n = xConv2.length;
        double pi = Math.PI;
        divBy = 1;
        Xr = new double[n];
        Xi = new double[n];
        tempXr = new double[n];
        tempXi = new double[n];
        Wr = new double[n/2];
        Wi = new double[n/2];

        System.out.println("经过二进制倒序排列后的x[n]:");
        for(int i=0;i<n;i++){						//初始化Xr、Xi，之所以这样初始化，是为了方便下面的蝶形结果暂存
            Xr[i] = xConv2[i];
            Xi[i] = 0;
            System.out.println(String.format("%f", xConv2[i]));
        }

        for(int i=0;i<m;i++){						//共需要进行m次蝶形计算
            divBy *= 2;
            for(int k=0;k<divBy/2;k++){				//旋转因子赋值
                Wr[k] = Math.cos(k*2*pi/divBy);
                Wi[k] = -Math.sin(k*2*pi/divBy);
            }

            for(int j=0;j<n;j++){					//蝶形结果暂存
                tempXr[j] = Xr[j];
                tempXi[j] = Xi[j];
            }

            for(int k=0;k<n/divBy;k++){					//蝶形运算：每一轮蝶形运算，都有n/2对的蝴蝶参与；n/2分为n/divBy组，每组divBy/2个。
                int wIndex = 0;							//旋转因子下标索引
                for(int j=k*divBy;j<k*divBy+divBy/2;j++){
                    double X1 = tempXr[j+divBy/2]*Wr[wIndex] - tempXi[j+divBy/2]*Wi[wIndex];
                    double X2 = tempXi[j+divBy/2]*Wr[wIndex] + tempXr[j+divBy/2]*Wi[wIndex];
                    Xr[j] = tempXr[j] + X1;
                    Xi[j] = tempXi[j] + X2;
                    Xr[j+divBy/2] = tempXr[j] - X1;	//蝶形对两成员距离相差divBy/2
                    Xi[j+divBy/2] = tempXi[j] - X2;
                    wIndex ++;
//					System.out.println("j="+j);
                }
            }
        }

        System.out.println("FFT结果共有"+n/2+"个：");
        double[] mod = new double[n/2];
        for(int i=1;i<=n/2;i++) {                        //FFT结果显示
//            System.out.println(String.format("%f", Xr[i])+" + j"+String.format("%f",Xi[i]));
            mod[i - 1] = Math.sqrt(Xr[i] * Xr[i] + Xi[i] * Xi[i]);
            System.out.println(mod[i-1]+"");
        }
        return mod;
    }


    public final static int POINT_COUNT = 1024;
    public static void main(String[] args) throws Exception{
        double[] a = {
                -0.909768,
                -0.91329,
                -0.913542,
                -0.910271,
                -0.910209,
                -0.910334,
                -0.910083,
                -0.913856,
                -0.916309,
                -0.911026,
                -0.91046f,
                -0.910523,
                -0.909643,
                -0.914297,
                -0.912158,
                -0.9109,
                -0.910083,
                -0.910271,
                -0.909202,
                -0.915051,
                -0.915429,
                -0.910775,
                -0.912032,
                -0.908699,
                -0.911341,
                -0.91329,
                -0.912787,
                -0.910209,
                -0.911152,
                -0.908888,
                -0.909643,
                -0.915995,
                -0.913479,
                -0.912284,
                -0.910963,
                -0.908825,
                -0.911341,
                -0.913605,
                -0.911781,
                -0.9109,
                -0.911215,
                -0.907819,
                -0.911026,
                -0.91568,
                -0.91285,
                -0.913479,
                -0.909957,
                -0.909139,
                -0.911655,
                -0.913605,
                -0.911529,
                -0.911655,
                -0.910775,
                -0.906624,
                -0.913039,
                -0.913605,
                -0.914297,
                -0.912976,
                -0.910271,
                -0.909139,
                -0.912221,
                -0.913039,
                -0.910963,
                -0.913416,
                -0.908762,
                -0.908636,
                -0.91241,
                -0.913542,
                -0.914297,
                -0.913039,
                -0.909643,
                -0.909391,
                -0.912913,
                -0.912032,
                -0.912032,
                -0.91329,
                -0.907693,
                -0.909454,
                -0.911907,
                -0.913605,
                -0.914989,
                -0.912913,
                -0.90958,
                -0.909768,
                -0.913479,
                -0.910397,
                -0.914108,
                -0.911592,
                -0.908573,
                -0.909831,
                -0.911466,
                -0.913668,
                -0.914611,
                -0.913165,
                -0.908322,
                -0.912032,
                -0.911466,
                -0.911718,
                -0.914171,
                -0.911089,
                -0.908888,
                -0.909643,
                -0.911404,
                -0.913542,
                -0.915617,
                -0.911907,
                -0.909014,
                -0.912095,
                -0.910271,
                -0.912661,
                -0.913794,
                -0.910586,
                -0.909265,
                -0.909139,
                -0.911278,
                -0.91329,
                -0.916121,
                -0.910271,
                -0.9109,
                -0.911152,
                -0.910334,
                -0.913416,
                -0.912913,
                -0.911152,
                -0.908762,
                -0.910146,
                -0.909894,
                -0.914989,
                -0.914548,
                -0.91046,
                -0.911529,
                -0.910146,
                -0.910837,
                -0.913102,
                -0.913102,
                -0.910397,
                -0.909517,
                -0.908951,
                -0.910083,
                -0.915806,
                -0.913479,
                -0.911404,
                -0.911592,
                -0.909517,
                -0.911404,
                -0.912976,
                -0.913227,
                -0.910146,
                -0.91046,
                -0.907504,
                -0.911215,
                -0.91524,
                -0.912221,
                -0.912599,
                -0.910649,
                -0.910334,
                -0.911026,
                -0.913982,
                -0.912032,
                -0.911466,
                -0.909768,
                -0.907252,
                -0.91285,
                -0.914171,
                -0.913102,
                -0.912221,
                -0.910775,
                -0.909705,
                -0.911718,
                -0.913542,
                -0.911907,
                -0.912347,
                -0.908636,
                -0.907819,
                -0.91285,
                -0.913353,
                -0.913731,
                -0.912284,
                -0.911152,
                -0.909517,
                -0.912661,
                -0.912661,
                -0.912347,
                -0.912787,
                -0.907378,
                -0.909265,
                -0.912032,
                -0.913982,
                -0.913102,
                -0.912787,
                -0.910083,
                -0.910083,
                -0.912976,
                -0.911781,
                -0.913982,
                -0.911466,
                -0.907819,
                -0.909014,
                -0.912095,
                -0.913542,
                -0.913542,
                -0.912787,
                -0.90958,
                -0.911152,
                -0.91197,
                -0.91197,
                -0.914611,
                -0.910649,
                -0.908322,
                -0.909014,
                -0.912032,
                -0.91285,
                -0.913982,
                -0.912158,
                -0.90958,
                -0.912095,
                -0.910397,
                -0.913416,
                -0.913794,
                -0.910712,
                -0.908133,
                -0.90958,
                -0.911907,
                -0.913102,
                -0.914737,
                -0.910712,
                -0.911089,
                -0.911026,
                -0.910586,
                -0.913668,
                -0.913856,
                -0.910397,
                -0.908007,
                -0.909957,
                -0.911089,
                -0.913668,
                -0.914234,
                -0.9109,
                -0.91197,
                -0.910397,
                -0.911026,
                -0.913605,
                -0.913794,
                -0.910209,
                -0.908636,
                -0.910146,
                -0.910397,
                -0.914737,
                -0.912536,
                -0.911907,
                -0.911404,
                -0.910209,
                -0.911215,
                -0.913856,
                -0.913794,
                -0.909454,
                -0.909517,
                -0.908699,
                -0.911718,
                -0.914108,
                -0.912599,
                -0.912284,
                -0.911152,
                -0.909957,
                -0.911278,
                -0.914485,
                -0.913039,
                -0.910397,
                -0.909517,
                -0.908385,
                -0.91241,
                -0.913416,
                -0.912661,
                -0.912536,
                -0.9109,
                -0.91002,
                -0.911592,
                -0.914863,
                -0.912032,
                -0.911404,
                -0.908385,
                -0.909014,
                -0.912536,
                -0.912913,
                -0.913039,
                -0.912221,
                -0.911215,
                -0.909014,
                -0.912913,
                -0.913794,
                -0.91285,
                -0.911152,
                -0.907944,
                -0.90958,
                -0.912158,
                -0.912976,
                -0.912913,
                -0.912976,
                -0.91046,
                -0.909517,
                -0.912976,
                -0.91329,
                -0.913479,
                -0.910775,
                -0.908133,
                -0.910146,
                -0.911718,
                -0.912913,
                -0.912724,
                -0.913416,
                -0.90958,
                -0.910523,
                -0.912473,
                -0.91329,
                -0.913856,
                -0.909957,
                -0.908636,
                -0.90958,
                -0.912221,
                -0.912032,
                -0.913919,
                -0.912473,
                -0.90958,
                -0.910712,
                -0.911907,
                -0.914108,
                -0.913605,
                -0.910146,
                -0.90851,
                -0.910209,
                -0.911592,
                -0.912221,
                -0.914171,
                -0.911907,
                -0.910146,
                -0.910837,
                -0.911781,
                -0.91436,
                -0.91285,
                -0.910083,
                -0.908448,
                -0.910712,
                -0.910712,
                -0.912599,
                -0.914108,
                -0.911215,
                -0.910837,
                -0.910209,
                -0.912599,
                -0.913982,
                -0.913605,
                -0.90958,
                -0.909139,
                -0.910334,
                -0.910334,
                -0.913416,
                -0.913479,
                -0.912032,
                -0.910334,
                -0.910209,
                -0.912284,
                -0.914548,
                -0.912913,
                -0.90958,
                -0.909705,
                -0.909831,
                -0.910649,
                -0.913605,
                -0.913039,
                -0.912158,
                -0.910209,
                -0.910397,
                -0.912536,
                -0.9148,
                -0.91241,
                -0.909705,
                -0.910271,
                -0.908888,
                -0.911529,
                -0.912724,
                -0.913416,
                -0.911907,
                -0.910083,
                -0.909957,
                -0.912787,
                -0.914926,
                -0.911907,
                -0.9109,
                -0.909517,
                -0.909454,
                -0.911089,
                -0.913039,
                -0.91329,
                -0.911907,
                -0.910146,
                -0.910083,
                -0.913353,
                -0.914234,
                -0.911781,
                -0.910837,
                -0.909014,
                -0.90958,
                -0.910963,
                -0.912913,
                -0.913353,
                -0.911907,
                -0.909831,
                -0.910209,
                -0.914108,
                -0.913479,
                -0.912599,
                -0.910712,
                -0.909265,
                -0.909265,
                -0.910963,
                -0.913102,
                -0.913165,
                -0.912158,
                -0.909014,
                -0.910712,
                -0.913416,
                -0.913668,
                -0.912599,
                -0.910775,
                -0.909454,
                -0.909328,
                -0.911089,
                -0.912913,
                -0.913731,
                -0.911592,
                -0.909014,
                -0.911529,
                -0.913479,
                -0.913731,
                -0.912536,
                -0.910523,
                -0.909391,
                -0.909391,
                -0.911278,
                -0.912536,
                -0.913982,
                -0.910775,
                -0.909391,
                -0.911278,
                -0.913227,
                -0.913982,
                -0.912347,
                -0.911278,
                -0.909265,
                -0.909768,
                -0.910649,
                -0.913227,
                -0.913605,
                -0.910963,
                -0.909831,
                -0.911026,
                -0.913039,
                -0.913605,
                -0.912661,
                -0.9109,
                -0.909517,
                -0.909391,
                -0.910586,
                -0.913668,
                -0.913605,
                -0.91046,
                -0.909831,
                -0.911215,
                -0.913605,
                -0.913605,
                -0.912976,
                -0.910586,
                -0.909831,
                -0.909014,
                -0.9109,
                -0.913794,
                -0.91285,
                -0.910586,
                -0.90958,
                -0.911655,
                -0.913165,
                -0.913794,
                -0.912473,
                -0.911152,
                -0.91002,
                -0.908825,
                -0.911404,
                -0.913542,
                -0.912787,
                -0.910523,
                -0.91002,
                -0.911529,
                -0.91285,
                -0.913605,
                -0.912599,
                -0.911089,
                -0.90958,
                -0.908888,
                -0.911341,
                -0.913479,
                -0.913165,
                -0.910271,
                -0.910146,
                -0.911466,
                -0.913165,
                -0.913668,
                -0.912599,
                -0.911781,
                -0.909202,
                -0.909202,
                -0.911341,
                -0.913856,
                -0.912661,
                -0.91046,
                -0.91002,
                -0.911341,
                -0.913102,
                -0.913227,
                -0.912976,
                -0.911529,
                -0.909014,
                -0.909139,
                -0.911718,
                -0.913605,
                -0.912284,
                -0.910334,
                -0.910209,
                -0.911655,
                -0.91329,
                -0.913165,
                -0.913353,
                -0.911404,
                -0.909328,
                -0.909014,
                -0.911844,
                -0.913542,
                -0.912158,
                -0.910586,
                -0.91002,
                -0.911907,
                -0.912599,
                -0.913416,
                -0.913165,
                -0.911529,
                -0.909014,
                -0.909202,
                -0.912032,
                -0.913479,
                -0.912347,
                -0.910397,
                -0.91046,
                -0.911781,
                -0.912724,
                -0.913416,
                -0.91329,
                -0.911215,
                -0.908888,
                -0.909328,
                -0.912284,
                -0.91329,
                -0.912095,
                -0.910209,
                -0.910523,
                -0.911718,
                -0.912661,
                -0.913668,
                -0.913416,
                -0.911592,
                -0.908636,
                -0.909705,
                -0.91197,
                -0.913353,
                -0.911718,
                -0.910397,
                -0.91046,
                -0.911341,
                -0.912536,
                -0.913479,
                -0.913668,
                -0.911152,
                -0.908762,
                -0.90958,
                -0.912284,
                -0.91329,
                -0.911718,
                -0.910271,
                -0.910523,
                -0.911466,
                -0.912724,
                -0.913605,
                -0.913605,
                -0.910837,
                -0.908762,
                -0.909831,
                -0.912536,
                -0.913165,
                -0.911529,
                -0.910775,
                -0.910523,
                -0.911592,
                -0.912284,
                -0.913982,
                -0.913605,
                -0.911026,
                -0.908825,
                -0.909894,
                -0.91241,
                -0.912787,
                -0.911655,
                -0.910397,
                -0.910586,
                -0.911215,
                -0.912347,
                -0.914045,
                -0.913605,
                -0.910586,
                -0.908888,
                -0.910334,
                -0.912724,
                -0.912599,
                -0.911592,
                -0.910523,
                -0.9109,
                -0.910963,
                -0.912221,
                -0.914171,
                -0.913542,
                -0.910775,
                -0.908699,
                -0.91046,
                -0.912032,
                -0.912913,
                -0.911592,
                -0.910775,
                -0.910649,
                -0.910775,
                -0.912473,
                -0.914234,
                -0.913605,
                -0.910271,
                -0.909014,
                -0.91046,
                -0.912284,
                -0.912536,
                -0.911278,
                -0.910712,
                -0.910586,
                -0.910775,
                -0.912599,
                -0.914422,
                -0.913605,
                -0.910271,
                -0.909391,
                -0.910586,
                -0.912347,
                -0.912536,
                -0.911278,
                -0.911026,
                -0.910271,
                -0.910649,
                -0.912536,
                -0.9148,
                -0.912913,
                -0.910271,
                -0.909391,
                -0.910649,
                -0.912599,
                -0.912032,
                -0.911466,
                -0.910963,
                -0.910523,
                -0.910334,
                -0.912724,
                -0.914611,
                -0.912976,
                -0.91046,
                -0.909454,
                -0.910775,
                -0.91241,
                -0.912032,
                -0.911529,
                -0.9109,
                -0.910209,
                -0.910271,
                -0.913102,
                -0.914611,
                -0.912787,
                -0.910523,
                -0.909139,
                -0.911152,
                -0.912158,
                -0.912095,
                -0.911655,
                -0.911278,
                -0.909957,
                -0.910334,
                -0.913479,
                -0.914234,
                -0.913102,
                -0.910334,
                -0.909643,
                -0.911089,
                -0.912032,
                -0.911907,
                -0.911718,
                -0.911215,
                -0.909643,
                -0.910712,
                -0.913353,
                -0.91436,
                -0.913039,
                -0.910146,
                -0.909831,
                -0.911404,
                -0.912095,
                -0.911781,
                -0.911844,
                -0.911278,
                -0.909643,
                -0.910837,
                -0.91285,
                -0.914422,
                -0.912724,
                -0.910397,
                -0.910146,
                -0.911215,
                -0.911844,
                -0.911844,
                -0.91241,
                -0.91046,
                -0.909831,
                -0.910712,
                -0.913227,
                -0.914485,
                -0.912536,
                -0.910271,
                -0.910271,
                -0.911466,
                -0.911278,
                -0.912284,
                -0.912221,
                -0.910334,
                -0.909391,
                -0.911529,
                -0.913605,
                -0.915114,
                -0.911907,
                -0.910334,
                -0.91002,
                -0.911466,
                -0.910963,
                -0.91329,
                -0.91285,
                -0.910523,
                -0.909265,
                -0.909643,
                -0.912976,
                -0.913794,
                -0.91329,
                -0.909957,
                -0.911215,
                -0.911152,
                -0.912158,
                -0.91285,
                -0.912221,
                -0.909517,
                -0.908448,
                -0.910397,
                -0.91329,
                -0.914674,
                -0.912661,
                -0.911152,
                -0.911026,
                -0.911152,
                -0.911026,
                -0.912284,
                -0.911781,
                -0.910397,
                -0.909014,
                -0.911278,
                -0.913542,
                -0.91436,
                -0.912158,
                -0.911152,
                -0.910146,
                -0.910523,
                -0.912284,
                -0.912158,
                -0.912473,
                -0.910397,
                -0.909705,
                -0.910712,
                -0.913919,
                -0.912787,
                -0.911781,
                -0.911529,
                -0.910837,
                -0.911026,
                -0.912095,
                -0.912284,
                -0.911907,
                -0.910712,
                -0.908762,
                -0.910586,
                -0.913856,
                -0.913227,
                -0.912032,
                -0.911907,
                -0.91046,
                -0.910963,
                -0.911907,
                -0.912787,
                -0.911907,
                -0.910397,
                -0.908448,
                -0.911404,
                -0.913982,
                -0.913416,
                -0.910334,
                -0.910146,
                -0.912536,
                -0.911466,
                -0.910963,
                -0.912032,
                -0.912347,
                -0.910083,
                -0.91002,
                -0.911215,
                -0.912095,
                -0.913668,
                -0.913227,
                -0.911278,
                -0.911215,
                -0.910523,
                -0.911529,
                -0.913102,
                -0.912221,
                -0.908196,
                -0.909517,
                -0.912347,
                -0.91329,
                -0.914171,
                -0.912536,
                -0.910712,
                -0.909894,
                -0.911026,
                -0.911655,
                -0.913668,
                -0.91197,
                -0.908573,
                -0.910397,
                -0.912095,
                -0.913227,
                -0.912661,
                -0.912158,
                -0.910397,
                -0.911215,
                -0.911404,
                -0.911844,
                -0.913794,
                -0.911529,
                -0.908825,
                -0.90958,
                -0.911718,
                -0.912347,
                -0.913605,
                -0.913039,
                -0.911529,
                -0.911466,
                -0.910712,
                -0.911844,
                -0.913605,
                -0.911404,
                -0.908825,
                -0.909894,
                -0.912032,
                -0.912787,
                -0.913479,
                -0.912599,
                -0.91046,
                -0.91046,
                -0.912095,
                -0.912158,
                -0.912284,
                -0.912661,
                -0.910146,
                -0.909643,
                -0.910963,
                -0.912032,
                -0.913039,
                -0.913919,
                -0.91197,
                -0.909705,
                -0.911026,
                -0.913102,
                -0.912913,
                -0.911655,
                -0.908573,
                -0.909391,
                -0.911655,
                -0.913605,
                -0.912913,
                -0.912787,
                -0.91197,
                -0.909517,
                -0.911718,
                -0.912599,
                -0.912724,
                -0.911089,
                -0.910523,
                -0.910083,
                -0.91197,
                -0.913165,
                -0.911718,
                -0.912661,
                -0.911592,
                -0.909768,
                -0.911215,
                -0.913605,
                -0.912787,
                -0.911592,
                -0.91046,
                -0.909202,
                -0.911404,
                -0.91285,
                -0.912095,
                -0.913416,
                -0.912221,
                -0.910083,
                -0.911152,
                -0.913605,
                -0.912032,
                -0.910963,
                -0.909894,
                -0.909014,
                -0.912095,
                -0.912724,
                -0.912661,
                -0.912787,
                -0.911907,
                -0.909517,
                -0.911466,
                -0.913542,
                -0.912095,
                -0.911592,
                -0.909831,
                -0.910271,
                -0.911655,
                -0.912284,
                -0.91241,
                -0.91285,
                -0.911592,
                -0.909831,
                -0.911907,
                -0.913227,
                -0.912536,
                -0.911089,
                -0.909454,
                -0.910397,
                -0.911215,
                -0.912347,
                -0.912913,
                -0.913227,
                -0.911026,
                -0.910146,
                -0.911907,
                -0.91285,
                -0.913165,
                -0.910712,
                -0.91002,
                -0.910586,
                -0.911404,
                -0.911781,
                -0.913102,
                -0.912787,
                -0.91046,
                -0.9109,
                -0.911781,
                -0.913165,
                -0.913039,
                -0.910397,
                -0.909705,
                -0.910586,
                -0.910963,
                -0.911592,
                -0.913919,
                -0.913102,
                -0.910712,
                -0.911215,
                -0.911718,
                -0.913227,
                -0.912347,
                -0.910523,
                -0.909894,
                -0.9109,
                -0.910837,
                -0.911844,
                -0.914045,
                -0.912032,
                -0.910837,
                -0.910586,
                -0.911907,
                -0.91329,
                -0.912661,
                -0.910397,
                -0.910146,
                -0.911341,
                -0.910209,
                -0.912473,
                -0.913731,
                -0.912032,
                -0.910963,
                -0.911089,
                -0.912095,
                -0.913102,
                -0.912347,
                -0.910397,
                -0.910523,
                -0.910586,
                -0.91002,
                -0.912787,
                -0.913668,
                -0.912347,
                -0.910775,
                -0.910837,
                -0.912221,
                -0.913039,
                -0.912536,
                -0.910397,
                -0.910837,
                -0.909894,
                -0.910523,
                -0.912473,
                -0.913227,
                -0.912221,
                -0.910649,
                -0.911089,
                -0.912158,
                -0.913542,
                -0.912032,
                -0.911089,
                -0.910712,
                -0.909894,
                -0.910649,
                -0.912032,
                -0.913353,
                -0.912284,
                -0.9109,
                -0.910649,
                -0.91241,
                -0.913353,
                -0.912158,
                -0.911907,
                -0.910083,
                -0.909643,
                -0.9109,
                -0.91241,
                -0.913227,
                -0.912158,
                -0.91046,
                -0.910649,
                -0.913165,
                -0.912787,
                -0.912032,
                -0.911466,
                -0.910146,
                -0.909894,
                -0.911026,
                -0.91241,
                -0.91329,
                -0.912536,
                -0.910397,
                -0.911026,
                -0.912913,
                -0.912221,
                -0.912284,
                -0.911655,
                -0.910397,
                -0.909957,
                -0.911089,
                -0.91241,
                -0.913227,
                -0.912284,
                -0.909957,
                -0.911404,
                -0.912661,
                -0.912473,
                -0.912536,
                -0.911781,
                -0.910334,
                -0.909705,
                -0.911026,
                -0.912158,
                -0.913353,
                -0.911844,
                -0.910397,
                -0.912032,
                -0.912536,
                -0.912536,
                -0.91241,
                -0.911592,
                -0.910209,
                -0.910146,
                -0.910775,
                -0.912536,
                -0.913605,
                -0.911404,
                -0.910712,
                -0.911781,
                -0.912221,
                -0.912473,
                -0.912661,
                -0.911718,
                -0.910334,
                -0.910146,
                -0.910523,
                -0.913039,
                -0.913227,
                -0.911152,
                -0.911089,
                -0.911718,
                -0.912221,
                -0.912661,
                -0.912724,
                -0.911215,
                -0.910397,
                -0.909894,
                -0.910586,
                -0.913416,
                -0.912787,
                -0.911215,
                -0.911215,
                -0.911781,
                -0.912032,
                -0.91285,
                -0.912599,
                -0.911278,
                -0.910775,
                -0.909517,
                -0.911026,
                -0.913165,
                -0.91241,
                -0.911278,
                -0.911278,
                -0.911529,
                -0.911844,
                -0.913165,
                -0.912347,
                -0.911592,
                -0.910586,
                -0.909391,
                -0.911278,
                -0.913039,
                -0.912347,
                -0.911215,
                -0.911529,
                -0.911404,
                -0.912158,
                -0.912976,
                -0.912095,
                -0.911781,
                -0.910209,
                -0.909265,
                -0.911466,
                -0.912913,
                -0.912032,
                -0.911529,
                -0.911404,
                -0.911152,
                -0.912473,
                -0.912787,
                -0.91241,
                -0.912032,
                -0.91002,
                -0.909643,
                -0.911592,
                -0.912724,
                -0.911844,
                -0.911655,
                -0.911089,
                -0.911278,
                -0.91241,
                -0.912284,
                -0.912661,
                -0.911844,
                -0.909831,
                -0.909705,
                -0.911907,
                -0.912473,
                -0.912095,
                -0.911844,
                -0.910963,
                -0.911655,
                -0.912158,
                -0.912347,
                -0.91285,
                -0.911844,
                -0.909643,
                -0.909957,
                -0.911781,
                -0.912032,
                -0.912095,
                -0.911466,
                -0.910837,
                -0.911844,
                -0.912032,
                -0.912536,
                -0.913165,
                -0.911592,
                -0.909517,
                -0.910334,
                -0.911655,
                -0.912158,
                -0.912473,
                -0.911278,
                -0.911278,
                -0.911907,
                -0.911907,
                -0.912724,
                -0.913353,
                -0.911278,
                -0.909705,
                -0.910649,
                -0.911404,
                -0.912347,
                -0.912284,
                -0.911152,
                -0.911404,
                -0.911718,
                -0.911844,
                -0.913039,
                -0.913542,
                -0.911152,
                -0.910209,
                -0.910712,
                -0.911278,
                -0.912473,
                -0.912032,
                -0.911152,
                -0.911529,
                -0.911529,
                -0.911655,
                -0.913227,
                -0.913227,
                -0.910837,
                -0.910209,
                -0.91046,
                -0.911655,
                -0.912536,
                -0.912032,
                -0.911466,
                -0.911781,
                -0.911404,
                -0.911781,
                -0.913542,
                -0.91285,
                -0.911026,
                -0.910397,
                -0.910397,
                -0.911529,
                -0.912347,
                -0.911718,
                -0.911529,
                -0.911718,
                -0.911152,
                -0.912032,
                -0.913605,
                -0.912599,
                -0.911215,
                -0.910271,
                -0.910397,
                -0.911655,
                -0.912158,
                -0.911718,
                -0.911781,
                -0.911655,
                -0.910963,
                -0.912284,
                -0.91329,
                -0.912536,
                -0.911341,
                -0.910209,
                -0.910397,
                -0.911907,
                -0.911844,
                -0.911529,
                -0.912158,
                -0.910963,
                -0.910775,
                -0.912787,
                -0.913353,
                -0.912536,
                -0.911655,
                -0.91002,
                -0.910649,
                -0.912032,
                -0.911718,
                -0.911592,
                -0.912158,
                -0.910837,
                -0.910963,
                -0.912536,
                -0.912976,
                -0.912661,
                -0.911466,
                -0.910083,
                -0.910712,
                -0.911907,
                -0.911529,
                -0.912032,
                -0.911907,
                -0.910775,
                -0.911466,
                -0.912724,
                -0.913165,
                -0.912913,
                -0.911341,
                -0.909957,
                -0.911089,
                -0.911466,
                -0.911278,
                -0.912095,
                -0.911655,
                -0.910649,
                -0.911529,
                -0.912536,
                -0.913102,
                -0.912976,
                -0.911215,
                -0.910334,
                -0.911278,
                -0.911529,
                -0.911529,
                -0.912347,
                -0.911404,
                -0.9109,
                -0.911341,
                -0.912221,
                -0.913102,
                -0.91285,
                -0.910775,
                -0.910523,
                -0.911404,
                -0.911215,
                -0.911718,
                -0.912221,
                -0.911466,
                -0.910963,
                -0.91197,
                -0.912536,
                -0.913605,
                -0.91241,
                -0.910712,
                -0.911026,
                -0.910712,
                -0.910209,
                -0.912599,
                -0.913165,
                -0.909957,
                -0.910334,
                -0.911592,
                -0.913227,
                -0.913479,
                -0.912284,
                -0.910083,
                -0.911844,
                -0.912032,
                -0.911089,
                -0.911655,
                -0.911655,
                -0.910837,
                -0.910649,
                -0.911718,
                -0.912158,
                -0.913605,
                -0.912347,
                -0.911404,
                -0.911404,
                -0.911026,
                -0.910397,
                -0.911781,
                -0.91197,
                -0.911278,
                -0.910837,
                -0.911026,
                -0.912661,
                -0.913605,
                -0.912347,
                -0.910963,
                -0.911089,
                -0.910775,
                -0.911341,
                -0.912032,
                -0.912032,
                -0.911341,
                -0.909139,
                -0.910775,
                -0.913605,
                -0.913039,
                -0.911907,
                -0.911844,
                -0.911278,
                -0.911278,
                -0.912158,
                -0.910334,
                -0.911089,
                -0.911529,
                -0.911026,
                -0.911278,
                -0.913856,
                -0.912032,
                -0.912599,
                -0.912599,
                -0.91046,
                -0.910209,
                -0.911089,
                -0.911844,
                -0.912095,
                -0.912347,
                -0.909705,
                -0.911215,
                -0.912976,
                -0.912473,
                -0.912284,
                -0.912284,
                -0.9109,
                -0.911026,
                -0.912221,
                -0.911718,
                -0.911844,
                -0.9109,
                -0.909705,
                -0.911466,
                -0.913227,
                -0.912724,
                -0.912473,
                -0.912221,
                -0.911089,
                -0.910775,
                -0.911404,
                -0.911404,
                -0.91197,
                -0.911341,
                -0.912032,
                -0.910712,
                -0.911089,
                -0.912913,
                -0.912032,
                -0.909957,
                -0.91046,
                -0.912221,
                -0.911341,
                -0.913919,
                -0.912536,
                -0.910775,
                -0.910397,
                -0.911404,
                -0.910775,
                -0.913039,
                -0.912661,
                -0.911844,
                -0.912032,
                -0.911718,
                -0.910523,
                -0.912158,
                -0.910586,
                -0.909014,
                -0.912284,
                -0.912032,
                -0.912032,
                -0.913605,
                -0.913416,
                -0.91046,
                -0.911907,
                -0.909831,
                -0.909768,
                -0.912284,
                -0.912787,
                -0.911026,
                -0.911844,
                -0.911655,
                -0.911152,
                -0.913353,
                -0.911907,
                -0.911341,
                -0.911529,
                -0.911529,
                -0.9109,
                -0.913102,
                -0.911529,
                -0.909831,
                -0.9109,
                -0.911781,
                -0.91241,
                -0.913416,
                -0.912032,
                -0.911907,
                -0.913731,
                -0.910586,
                -0.909517,
                -0.912284,
                -0.912284,
                -0.91002,
                -0.911718,
                -0.912787,
                -0.911529,
                -0.91329,
                -0.911404,
                -0.910837,
                -0.910775,
                -0.911844,
                -0.910712,
                -0.913479,
                -0.911844,
                -0.9109,
                -0.912976,
                -0.91197,
                -0.910712,
                -0.912913,
                -0.913039,
                -0.910083,
                -0.910334,
                -0.910649,
                -0.911718,
                -0.914108,
                -0.912661,
                -0.909391,
                -0.910397,
                -0.912347,
                -0.911844,
                -0.912284,
                -0.912284,
                -0.911026,
                -0.911718,
                -0.912095,
                -0.911781,
                -0.911907,
                -0.911152,
                -0.909768,
                -0.910775,
                -0.912536,
                -0.911466,
                -0.91285,
                -0.913353,
                -0.911781,
                -0.910586,
                -0.910963,
                -0.910963,
                -0.910649,
                -0.912284,
                -0.911655,
                -0.911152,
                -0.913542,
                -0.912724,
                -0.909768,
                -0.912661,
                -0.911404,
                -0.909265,
                -0.910271,
                -0.913102,
                -0.912599,
                -0.914297,
                -0.911718,
                -0.909014,
                -0.910837,
                -0.911781,
                -0.911341,
                -0.913227,
                -0.911655,
                -0.910209,
                -0.913479,
                -0.912724,
                -0.911529,
                -0.910712,
                -0.910837,
                -0.909454,
                -0.913039,
                -0.912599,
                -0.912284,
                -0.913353,
                -0.911089,
                -0.91002,
                -0.911404,
                -0.912284,
                -0.910963,
                -0.912347,
                -0.911844,
                -0.911404,
                -0.911844,
                -0.911844,
                -0.910963,
                -0.91285,
                -0.912095,
                -0.911026,
                -0.911718,
                -0.912536,
                -0.911718,
                -0.911215,
                -0.911278,
                -0.909139,
                -0.910209,
                -0.913165,
                -0.913794,
                -0.911655,
                -0.912976,
                -0.9109,
                -0.9109,
                -0.911466,
                -0.911089,
                -0.909768,
                -0.912095,
                -0.912724,
                -0.912032,
                -0.913416,
                -0.912032,
                -0.910649,
                -0.911341,
                -0.910649,
                -0.910271,
                -0.913102,
                -0.912661,
                -0.911529,
                -0.912032,
                -0.912095,
                -0.909643,
                -0.91197,
                -0.911592,
                -0.911529,
                -0.91241,
                -0.912032,
                -0.911404,
                -0.91241,
                -0.912536,
                -0.909517,
                -0.911404,
                -0.910837,
                -0.911026,
                -0.912284,
                -0.91329,
                -0.912032,
                -0.912032,
                -0.911215,
                -0.91046,
                -0.912473,
                -0.91197,
                -0.910712,
                -0.911215,
                -0.91197,
                -0.911278,
                -0.912661,
                -0.912661,
                -0.911781,
                -0.911278,
                -0.911718,
                -0.911278,
                -0.912473,
                -0.911907,
                -0.9109,
                -0.911026,
                -0.911529,
                -0.911404,
                -0.912032,
                -0.913416,
                -0.911718,
                -0.911655,
                -0.911089,
                -0.911718,
                -0.911404,
                -0.911781,
                -0.911341,
                -0.911278,
                -0.91197,
                -0.911592,
                -0.912536,
                -0.912661,
                -0.91197,
                -0.910712,
                -0.911404,
                -0.911844,
                -0.911907,
                -0.912095,
                -0.911655,
                -0.910963,
                -0.911026,
                -0.911026,
                -0.911718,
                -0.912473,
                -0.912347,
                -0.911655,
                -0.912032,
                -0.912473,
                -0.911844,
                -0.911781,
                -0.910775,
                -0.910523,
                -0.910649,
                -0.911655,
                -0.91197,
                -0.913227,
                -0.91241,
                -0.911278,
                -0.911341,
                -0.911466,
                -0.911592,
                -0.911592,
                -0.911529,
                -0.910775,
                -0.911404,
                -0.911529,
                -0.912032,
                -0.912724,
                -0.91197,
                -0.910963,
                -0.911655,
                -0.912095,
                -0.91197,
                -0.911466,
                -0.911341,
                -0.91046,
                -0.911026,
                -0.911466,
                -0.912095,
                -0.91285,
                -0.912032,
                -0.911404,
                -0.911404,
                -0.912032,
                -0.911529,
                -0.911718,
                -0.911404,
                -0.911026,
                -0.911152,
                -0.911466,
                -0.912158,
                -0.912221,
                -0.912095,
                -0.911278,
                -0.911781,
                -0.912032,
                -0.912032,
                -0.911529,
                -0.911278,
                -0.910837,
                -0.910523,
                -0.911215,
                -0.912032,
                -0.912473,
                -0.912284,
                -0.911718,
                -0.91197,
                -0.912158,
                -0.91197,
                -0.911529,
                -0.911152,
                -0.911026,
                -0.910397,
                -0.911718,
                -0.912221,
                -0.912473,
                -0.91197,
                -0.911466,
                -0.911592,
                -0.911907,
                -0.91197,
                -0.911278,
                -0.911718,
                -0.911026,
                -0.9109,
                -0.911466,
                -0.912284,
                -0.912095,
                -0.912095,
                -0.911655,
                -0.911592,
                -0.912221,
                -0.911844,
                -0.911592,
                -0.911404,
                -0.9109,
                -0.910586,
                -0.911529,
                -0.912284,
                -0.912158,
                -0.912032,
                -0.911655,
                -0.911655,
                -0.912095,
                -0.911781,
                -0.911718,
                -0.911404,
                -0.911089,
                -0.910649,
                -0.911529,
                -0.912284,
                -0.912032,
                -0.912032,
                -0.911655,
                -0.912032,
                -0.912032,
                -0.912032,
                -0.911404,
                -0.911215,
                -0.910649,
                -0.910397,
                -0.911466,
                -0.912095,
                -0.912095,
                -0.911907,
                -0.911907,
                -0.912032,
                -0.912095,
                -0.911907,
                -0.911529,
                -0.911404,
                -0.910712,
                -0.910586,
                -0.911466,
                -0.912158,
                -0.912095,
                -0.911592,
                -0.911844,
                -0.911844,
                -0.911907,
                -0.911781,
                -0.911781,
                -0.911592,
                -0.910963,
                -0.910963,
                -0.911341,
                -0.912284,
                -0.912032,
                -0.911718,
                -0.911844,
                -0.912032,
                -0.91197,
                -0.911844,
                -0.911907,
                -0.911089,
                -0.910712,
                -0.910649,
                -0.911529,
                -0.912095,
                -0.912032,
                -0.91197,
                -0.91197,
                -0.912032,
                -0.911907,
                -0.911907,
                -0.91197,
                -0.911215,
                -0.910712,
                -0.910712,
                -0.911718,
                -0.912095,
                -0.91197,
                -0.911655,
                -0.911907,
                -0.912221,
                -0.91197,
                -0.912095,
                -0.911718,
                -0.911089,
                -0.910586,
                -0.9109,
                -0.911529,
                -0.91197,
                -0.91197,
                -0.911718,
                -0.912158,
                -0.912158,
                -0.912032,
                -0.91197,
                -0.911907,
                -0.911278,
                -0.910712,
                -0.911026,
                -0.911592,
                -0.912032,
                -0.911907,
                -0.911718,
                -0.911907,
                -0.91197,
                -0.912032,
                -0.912032,
                -0.912032,
                -0.911278,
                -0.910649,
                -0.911026,
                -0.911466,
                -0.912032,
                -0.911781,
                -0.91197,
                -0.912032,
                -0.912095,
                -0.912032,
                -0.912032,
                -0.91197,
                -0.911089,
                -0.910649,
                -0.910775,
                -0.911655,
                -0.911844,
                -0.911844,
                -0.911781,
                -0.91197,
                -0.912032,
                -0.911907,
                -0.912095,
                -0.91197,
                -0.911341,
                -0.910837,
                -0.910963,
                -0.911718,
                -0.911781,
                -0.911844,
                -0.91197,
                -0.91197,
                -0.91197,
                -0.912032,
                -0.912221,
                -0.911781,
                -0.911152,
                -0.910523,
                -0.911026,
                -0.911655,
                -0.911781,
                -0.911592,
                -0.911907,
                -0.912095,
                -0.911781,
                -0.912095,
                -0.912032,
                -0.91197,
                -0.911278,
                -0.910837,
                -0.911089,
                -0.911089,
                -0.911718,
                -0.912158,
                -0.912032,
                -0.911466,
                -0.911781,
                -0.912221,
                -0.91241,
                -0.912032,
                -0.910712,
                -0.910397,
                -0.911215,
                -0.911844,
                -0.911718,
                -0.911844,
                -0.911907,
                -0.911907,
                -0.912158,
                -0.912221,
                -0.912158,
                -0.911907,
                -0.911215,
                -0.910712,
                -0.911215,
                -0.911341,
                -0.911215,
                -0.911592,
                -0.911781,
                -0.91197,
                -0.912032,
                -0.912032,
                -0.912221,
                -0.91197,
                -0.911026,
                -0.910712,
                -0.911152,
                -0.911404,
                -0.911529,
                -0.911844,
                -0.912032,
                -0.912095,
                -0.912095,
                -0.912095,
                -0.912284,
                -0.911907,
                -0.910963,
                -0.910837,
                -0.911215,
                -0.911278,
                -0.911466,
                -0.911844,
                -0.911781,
                -0.911718,
                -0.911844,
                -0.912221,
                -0.91241,
                -0.91197,
                -0.911152,
                -0.911152,
                -0.911404,
                -0.911404,
                -0.911592,
                -0.911655,
                -0.91197,
                -0.911718,
                -0.912032,
                -0.912095,
                -0.912347,
                -0.911718,
                -0.9109,
                -0.910837,
                -0.911278,
                -0.911341,
                -0.911529,
                -0.911781,
                -0.911844,
                -0.911907,
                -0.912032,
                -0.91241,
                -0.912473,
                -0.911844,
                -0.911089,
                -0.911089,
                -0.911278,
                -0.911215,
                -0.911341,
                -0.911529,
                -0.911781,
                -0.911718,
                -0.911907,
                -0.912221,
                -0.912347,
                -0.911592,
                -0.911152,
                -0.911152,
                -0.911278,
                -0.911215,
                -0.911781,
                -0.911907,
                -0.912032,
                -0.911907,
                -0.911844,
                -0.91241,
                -0.912473,
                -0.911655,
                -0.911089,
                -0.911089,
                -0.911089,
                -0.911278,
                -0.911592,
                -0.911718,
                -0.911592,
                -0.911529,
                -0.911907,
                -0.912599,
                -0.912473,
                -0.911718,
                -0.911341,
                -0.911278,
                -0.911152,
                -0.911404,
                -0.911466,
                -0.911529,
                -0.911781,
                -0.911718,
                -0.91197,
                -0.91241,
                -0.912158,
                -0.911655,
                -0.911278,
                -0.911215,
                -0.911215,
                -0.911466,
                -0.911592,
                -0.911592,
                -0.911529,
                -0.911592,
                -0.912095,
                -0.912536,
                -0.912095,
                -0.911466,
                -0.911278,
                -0.911278,
                -0.911215,
                -0.911341,
                -0.911466,
                -0.911592,
                -0.911718,
                -0.911592,
                -0.91197,
                -0.912347,
                -0.912158,
                -0.911844,
                -0.911529,
                -0.911152,
                -0.911152,
                -0.911341,
                -0.911844,
                -0.911844,
                -0.911529,
                -0.911529,
                -0.912158,
                -0.912599,
                -0.912347,
                -0.911655,
                -0.911152,
                -0.911278,
                -0.911466,
                -0.911466,
                -0.911592,
                -0.911592,
                -0.911215,
                -0.911529,
                -0.912158,
                -0.912536,
                -0.912158,
                -0.911655,
                -0.911466,
                -0.911404,
                -0.911404,
                -0.911278,
                -0.911592,
                -0.911718,
                -0.911466,
                -0.911655,
                -0.912032,
                -0.912158,
                -0.912032,
                -0.911529,
                -0.911341,
                -0.911278,
                -0.911089,
                -0.911026,
                -0.911718,
                -0.911718,
                -0.911278,
                -0.911592,
                -0.912032,
                -0.912536,
                -0.912221,
                -0.911655,
                -0.911278,
                -0.911404,
                -0.911278,
                -0.911341,
                -0.911592,
                -0.911341,
                -0.911278,
                -0.911655,
                -0.912158,
                -0.912158,
                -0.912032,
                -0.911592,
                -0.911529,
                -0.911466,
                -0.911152,
                -0.911341,
                -0.911655,
                -0.911529,
                -0.911404,
                -0.911781,
                -0.912158,
                -0.912347,
                -0.912095,
                -0.911592,
                -0.911466,
                -0.911466,
                -0.911152,
                -0.911466,
                -0.911529,
                -0.911341,
                -0.911278,
                -0.911718,
                -0.912158,
                -0.912473,
                -0.912032,
                -0.911655,
                -0.911592,
                -0.911341,
                -0.911404,
                -0.911655,
                -0.911592,
                -0.911215,
                -0.911215,
                -0.911718,
                -0.912284,
                -0.912473,
                -0.91197,
                -0.911718,
                -0.911655,
                -0.911529,
                -0.911341,
                -0.911466,
                -0.911466,
                -0.911341,
                -0.911404,
                -0.911592,
                -0.912221,
                -0.912347,
                -0.912032,
                -0.911907,
                -0.911655,
                -0.911341,
                -0.911341,
                -0.911529,
                -0.911529,
                -0.911404,
                -0.911152,
                -0.911466,
                -0.912221,
                -0.912473,
                -0.912095,
                -0.911844,
                -0.911655,
                -0.911404,
                -0.911655,
                -0.911529,
                -0.911404,
                -0.911278,
                -0.911152,
                -0.911781,
                -0.912473,
                -0.912284,
                -0.912032,
                -0.91197,
                -0.911844,
                -0.911529,
                -0.911529,
                -0.911592,
                -0.911466,
                -0.911404,
                -0.911215,
                -0.911844,
                -0.912284,
                -0.912284,
                -0.912158,
                -0.91197,
                -0.911592,
                -0.911404,
                -0.911404,
                -0.911466,
                -0.911529,
                -0.911215,
                -0.911215,
                -0.911781,
                -0.912221,
                -0.912158,
                -0.912221,
                -0.91197,
                -0.911592,
                -0.911592,
                -0.911592,
                -0.911529,
                -0.911404,
                -0.910963,
                -0.911089,
                -0.911781,
                -0.912032,
                -0.912032,
                -0.912095,
                -0.911907,
                -0.911718,
                -0.911529,
                -0.911592,
                -0.911718,
                -0.911404,
                -0.910963,
                -0.911152,
                -0.911718,
                -0.912095,
                -0.912032,
                -0.912158,
                -0.911781,
                -0.911529,
                -0.911341,
                -0.911466,
                -0.911592,
                -0.911278,
                -0.910963,
                -0.911215,
                -0.911781,
                -0.91197,
                -0.912158,
                -0.912032,
                -0.911907,
                -0.911718,
                -0.911404,
                -0.911592,
                -0.911655,
                -0.911341,
                -0.910837,
                -0.911089,
                -0.911655,
                -0.91197,
                -0.912221,
                -0.912032,
                -0.911844,
                -0.911655,
                -0.911466,
                -0.911592,
                -0.911592,
                -0.911152,
                -0.910775,
                -0.911278,
                -0.911592,
                -0.912095,
                -0.912158,
                -0.912032,
                -0.911907,
                -0.911781,
                -0.911592,
                -0.911718,
                -0.911592,
                -0.911152,
                -0.910963,
                -0.911278,
                -0.911592,
                -0.912032,
                -0.912095,
                -0.912032,
                -0.91197,
                -0.911655,
                -0.911404,
                -0.911781,
                -0.911655,
                -0.911152,
                -0.911089,
                -0.911215,
                -0.911655,
                -0.912032,
                -0.912221,
                -0.912095,
                -0.911907,
                -0.911466,
                -0.911404,
                -0.911907,
                -0.911592,
                -0.911152,
                -0.910963,
                -0.911152,
                -0.911718,
                -0.912095,
                -0.912221,
                -0.912221,
                -0.912032,
                -0.911655,
                -0.911781,
                -0.91197,
                -0.911592,
                -0.911152,
                -0.910963,
                -0.911089,
                -0.911781,
                -0.91197,
                -0.912032,
                -0.912095,
                -0.912032,
                -0.911592,
                -0.911781,
                -0.911844,
                -0.911655,
                -0.911341,
                -0.910963,
                -0.911089,
                -0.911529,
                -0.91197,
                -0.912032,
                -0.912221,
                -0.911781,
                -0.911529,
                -0.911718,
                -0.911907,
                -0.911592,
                -0.911089,
                -0.910837,
                -0.911089,
                -0.911718,
                -0.912032,
                -0.912158,
                -0.912284,
                -0.911844,
                -0.911655,
                -0.911844,
                -0.911907,
                -0.911592,
                -0.911089,
                -0.910712,
                -0.911089,
                -0.911718,
                -0.911844,
                -0.912095,
                -0.912032,
                -0.911844,
                -0.911781,
                -0.911781,
                -0.91197,
                -0.911655,
                -0.911152,
                -0.910775,
                -0.911278,
                -0.911529,
                -0.911844,
                -0.912158,
                -0.912095,
                -0.911781,
                -0.911718,
                -0.911844,
                -0.911844,
                -0.911655,
                -0.911089,
                -0.910837,
                -0.911215,
                -0.911466,
                -0.912032,
                -0.912284,
                -0.912158,
                -0.911844,
                -0.911781,
                -0.91197,
                -0.91197,
                -0.911655,
                -0.910963,
                -0.910963,
                -0.911152,
                -0.911466,
                -0.911907,
                -0.912158,
                -0.912095,
                -0.911844,
                -0.911907,
                -0.91197,
                -0.91197,
                -0.911592,
                -0.911026,
                -0.911089,
                -0.911152,
                -0.911466,
                -0.911781,
                -0.912284,
                -0.912158,
                -0.911781,
                -0.911781,
                -0.912095,
                -0.912095,
                -0.911529,
                -0.910963,
                -0.910837,
                -0.911089,
                -0.911655,
                -0.912032,
                -0.912032,
                -0.91197,
                -0.911844,
                -0.911718,
                -0.912032,
                -0.912032,
                -0.911466,
                -0.911152,
                -0.911026,
                -0.911089,
                -0.911341,
                -0.91197,
                -0.912032,
                -0.912032,
                -0.911844,
                -0.911655,
                -0.912032,
                -0.91197,
                -0.911592,
                -0.910963,
                -0.910837,
                -0.910837,
                -0.911466,
                -0.91197,
                -0.912095,
                -0.912095,
                -0.911655,
                -0.911781,
                -0.912158,
                -0.912095,
                -0.911466,
                -0.911026,
                -0.910837,
                -0.910963,
                -0.911529,
                -0.911844,
                -0.912032,
                -0.911907,
                -0.911592,
                -0.911844,
                -0.912095,
                -0.91197,
                -0.911404,
                -0.911026,
                -0.910963,
                -0.911026,
                -0.911718,
                -0.911907,
                -0.912158,
                -0.91197,
                -0.911718,
                -0.911844,
                -0.912032,
                -0.911844,
                -0.911466,
                -0.911089,
                -0.910775,
                -0.911089,
                -0.911341,
                -0.911907,
                -0.912158,
                -0.911844,
                -0.911655,
                -0.911907,
                -0.912158,
                -0.912032,
                -0.911781,
                -0.911026,
                -0.910837,
                -0.911152,
                -0.911404,
                -0.912032,
                -0.912158,
                -0.911907,
                -0.911655,
                -0.91197,
                -0.912032,
                -0.911844,
                -0.911592,
                -0.911152,
                -0.911026,
                -0.911026,
                -0.911466,
                -0.912032,
                -0.912158,
                -0.91197,
                -0.911844,
                -0.912158,
                -0.912158,
                -0.912158,
                -0.911718,
                -0.911152,
                -0.910963,
                -0.910963,
                -0.911466,
                -0.91197,
                -0.912095,
                -0.911781,
                -0.911655,
                -0.911907,
                -0.912095,
                -0.912095,
                -0.911592,
                -0.911215,
                -0.9109,
                -0.911152,
                -0.911718,
                -0.912158,
                -0.912095,
                -0.911655,
                -0.911907,
                -0.91197,
                -0.912095,
                -0.911907,
                -0.911529,
                -0.911152,
                -0.910837,
                -0.910837,
                -0.911404,
                -0.912095,
                -0.91197,
                -0.911907,
                -0.911844,
                -0.912032,
                -0.912221,
                -0.912032,
                -0.911781,
                -0.911278,
                -0.910775,
                -0.910837,
                -0.911529,
                -0.912095,
                -0.911907,
                -0.911718,
                -0.911718,
                -0.91197,
                -0.912158,
                -0.912032,
                -0.911592,
                -0.911215,
                -0.910837,
                -0.9109,
                -0.911718,
                -0.912032,
                -0.91197,
                -0.911844,
                -0.911781,
                -0.912032,
                -0.912221,
                -0.912032,
                -0.911592,
                -0.911215,
                -0.910712,
                -0.9109,
                -0.911592,
                -0.912032,
                -0.912032,
                -0.911655,
                -0.911718,
                -0.91197,
                -0.912158,
                -0.912032,
                -0.911718,
                -0.911215,
                -0.910775,
                -0.911026,
                -0.911655,
                -0.912095,
                -0.911907,
                -0.911592,
                -0.911718,
                -0.912095,
                -0.912095,
                -0.912032,
                -0.911718,
                -0.911215,
                -0.910712,
                -0.911026,
                -0.911655,
                -0.912032,
                -0.91197,
                -0.911844,
                -0.911844,
                -0.912095,
                -0.912032,
                -0.912032,
                -0.911907,
                -0.911278,
                -0.9109,
                -0.911026,
                -0.911655,
                -0.912032,
                -0.911844,
                -0.911592,
                -0.911718,
                -0.912032,
                -0.912095,
                -0.912158,
                -0.911844,
                -0.911152,
                -0.910775,
                -0.911026,
                -0.911655,
                -0.912032,
                -0.911844,
                -0.911655,
                -0.911844,
                -0.912032,
                -0.912158,
                -0.912158,
                -0.911781,
                -0.911026,
                -0.910712,
                -0.911089,
                -0.911592,
                -0.911907,
                -0.911718,
                -0.911592,
                -0.911907,
                -0.912032,
                -0.912095,
                -0.912221,
                -0.911781,
                -0.911215,
                -0.910837,
                -0.911152,
                -0.911718,
                -0.91197,
                -0.911655,
                -0.911592,
                -0.911844,
                -0.912032,
                -0.912221,
                -0.912221,
                -0.911844,
                -0.911089,
                -0.9109,
                -0.911152,
                -0.911718,
                -0.911844,
                -0.911655,
                -0.911718,
                -0.911907,
                -0.912032,
                -0.912221,
                -0.912221,
                -0.911781,
                -0.911152,
                -0.910837,
                -0.911152,
                -0.911781,
                -0.911907,
                -0.911592,
                -0.911718,
                -0.911718,
                -0.91197,
                -0.912221,
                -0.912284,
                -0.911781,
                -0.911026,
                -0.910649,
                -0.911089,
                -0.911655,
                -0.911718,
                -0.911655,
                -0.911592,
                -0.911655,
                -0.91197,
                -0.912284,
                -0.912284,
                -0.911781,
                -0.911215,
                -0.910775,
                -0.911215,
                -0.911655,
                -0.911655,
                -0.911655,
                -0.911718,
                -0.911781,
                -0.91197,
                -0.912284,
                -0.912158,
                -0.911844,
                -0.910963,
                -0.910775,
                -0.911278,
                -0.911655,
                -0.911781,
                -0.911718,
                -0.911592,
                -0.911655,
                -0.912032,
                -0.912284,
                -0.912347,
                -0.91197,
                -0.911152,
                -0.9109,
                -0.911278,
                -0.911655,
                -0.911718,
                -0.911781,
                -0.911592,
                -0.911655,
                -0.911844,
                -0.912284,
                -0.912347,
                -0.911844,
                -0.911089,
                -0.9109,
                -0.911341,
                -0.911655,
                -0.911781,
                -0.911718,
                -0.911529,
                -0.911718,
                -0.91197,
                -0.912158,
                -0.912284,
                -0.911718,
                -0.910963,
                -0.910837,
                -0.911278,
                -0.911592,
                -0.911718,
                -0.911655,
                -0.911466,
                -0.911718,
                -0.911907,
                -0.912284,
                -0.912473,
                -0.911844,
                -0.911026,
                -0.911026,
                -0.911341,
                -0.911655,
                -0.911781,
                -0.911592,
                -0.911466,
                -0.911592,
                -0.911844,
                -0.912284,
                -0.91241,
                -0.911655,
                -0.911152,
                -0.911026,
                -0.911215,
                -0.911655,
                -0.911718,
                -0.911718,
                -0.911592,
                -0.911655,
                -0.912032,
                -0.91241,
                -0.912347,
                -0.911844,
                -0.911152,
                -0.910963,
                -0.911278,
                -0.911592,
                -0.911592,
                -0.911466,
                -0.911341,
                -0.911404,
                -0.911907,
                -0.912284,
                -0.91241,
                -0.911781,
                -0.911215,
                -0.911152,
                -0.911404,
                -0.911718,
                -0.911718,
                -0.911655,
                -0.911529,
                -0.911592,
                -0.912032,
                -0.912599,
                -0.912473,
                -0.911781,
                -0.911152,
                -0.911089,
                -0.911404,
                -0.911592,
                -0.911655,
                -0.911655,
                -0.911529,
                -0.911529,
                -0.912032,
                -0.912473,
                -0.912347,
                -0.911844,
                -0.911278,
                -0.911152,
                -0.911404,
                -0.911655,
                -0.911718,
                -0.911592,
                -0.911466,
                -0.911529,
                -0.912032,
                -0.912536,
                -0.91241,
                -0.911907,
                -0.911215,
                -0.911215,
                -0.911466,
                -0.911718,
                -0.911844,
                -0.911781,
                -0.911466,
                -0.911466,
                -0.912158,
                -0.912536,
                -0.912473,
                -0.911844,
                -0.911278,
                -0.911152,
                -0.911466,
                -0.911529,
                -0.911781,
                -0.911718,
                -0.911404,
                -0.911404,
                -0.912095,
                -0.912536,
                -0.912473,
                -0.911907,
                -0.911404,
                -0.911215,
                -0.911404,
                -0.911781,
                -0.91197,
                -0.911781,
                -0.911278,
                -0.911529,
                -0.912032,
                -0.912536,
                -0.912284,
                -0.911718,
                -0.911215,
                -0.911215,
                -0.911341,
                -0.911655,
                -0.911844,
                -0.911592,
                -0.911278,
                -0.911529,
                -0.912032,
                -0.912536,
                -0.91241,
                -0.911781,
                -0.911466,
                -0.911215,
                -0.911341,
                -0.911655,
                -0.911781,
                -0.911529,
                -0.911341,
                -0.911529,
                -0.912032,
                -0.912473,
                -0.912221,
                -0.911781,
                -0.911466,
                -0.911278,
                -0.911466,
                -0.911781,
                -0.911844,
                -0.911655,
                -0.911215,
                -0.911341,
                -0.912032,
                -0.912661,
                -0.912347,
                -0.911844,
                -0.911404,
                -0.911215,
                -0.911466,
                -0.911655,
                -0.911844,
                -0.911466,
                -0.911341,
                -0.911466,
                -0.912095,
                -0.912599,
                -0.912221,
                -0.911781,
                -0.911341,
                -0.911278,
                -0.911466,
                -0.911781,
                -0.911781,
                -0.911655,
                -0.911215,
                -0.911466,
                -0.912158,
                -0.912473,
                -0.912221,
                -0.91197,
                -0.911529,
                -0.911341,
                -0.911404,
                -0.911907,
                -0.911781,
                -0.911529,
                -0.911215,
                -0.911592,
                -0.912221,
                -0.912536,
                -0.912347,
                -0.911907,
                -0.911655,
                -0.911341,
                -0.911466,
                -0.911718,
                -0.911781,
                -0.911529,
                -0.911278,
                -0.911529,
                -0.912095,
                -0.912536,
                -0.912221,
                -0.91197,
                -0.911592,
                -0.911278,
                -0.911404,
                -0.911781,
                -0.911907,
                -0.911466,
                -0.911089,
                -0.911466,
                -0.912095,
                -0.912473,
                -0.912284,
                -0.91197,
                -0.911404,
                -0.911278,
                -0.911529,
                -0.911781,
                -0.911907,
                -0.911404,
                -0.911089,
                -0.911404,
                -0.912221,
                -0.91241,
                -0.912347,
                -0.91197,
                -0.911529,
                -0.911278,
                -0.911529,
                -0.91197,
                -0.911781,
                -0.911341,
                -0.911026,
                -0.911655,
                -0.912158,
                -0.91241,
                -0.912347,
                -0.91197,
                -0.911529,
                -0.911215,
                -0.911466,
                -0.91197,
                -0.91197,
                -0.911404,
                -0.911026,
                -0.911592,
                -0.912095,
                -0.912347,
                -0.912347,
                -0.912032,
                -0.911404,
                -0.911215,
                -0.911466,
                -0.911844,
                -0.911844,
                -0.911152,
                -0.910963,
                -0.911718,
                -0.912158,
                -0.912347,
                -0.91241,
                -0.912095,
                -0.911529,
                -0.911404,
                -0.911592,
                -0.911907,
                -0.911718,
                -0.911278,
                -0.911026,
                -0.911466,
                -0.912032,
                -0.912347,
                -0.912473,
                -0.912032,
                -0.911466,
                -0.911404,
                -0.911655,
                -0.912095,
                -0.911781,
                -0.911215,
                -0.911215,
                -0.911592,
                -0.912032,
                -0.912284,
                -0.912473,
                -0.912032,
                -0.911466,
                -0.911089,
                -0.911592,
                -0.912032,
                -0.911844,
                -0.911341,
                -0.911089,
                -0.911529,
                -0.912032,
                -0.912536,
                -0.912347,
                -0.912032,
                -0.911529,
                -0.911404,
                -0.911844,
                -0.912032,
                -0.911718,
                -0.911341,
                -0.911215,
                -0.911529,
                -0.91197,
                -0.912473,
                -0.91241,
                -0.912032,
                -0.911404,
                -0.911341,
                -0.911844,
                -0.91197,
                -0.911718,
                -0.911278,
                -0.911404,
                -0.911529,
                -0.912095,
                -0.912473,
                -0.912473,
                -0.912032,
                -0.911466,
                -0.911404,
                -0.911781,
                -0.912032,
                -0.911718,
                -0.911278,
                -0.911152,
                -0.911341,
                -0.91197,
                -0.912347,
                -0.912473,
                -0.911844,
                -0.911466,
                -0.911466,
                -0.911844,
                -0.912032,
                -0.911592,
                -0.911341,
                -0.911152,
                -0.911466,
                -0.912032,
                -0.91241,
                -0.912473,
                -0.911907,
                -0.911404,
                -0.911341,
                -0.911718,
                -0.911844,
                -0.911529,
                -0.911152,
                -0.911026,
                -0.911341,
                -0.911907,
                -0.912473,
                -0.91241,
                -0.91197,
                -0.911529,
                -0.911529,
                -0.911907,
                -0.911781,
                -0.911592,
                -0.911089,
                -0.911089,
                -0.911278,
                -0.911844,
                -0.912221,
                -0.912347,
                -0.911907,
                -0.911341,
                -0.911466,
                -0.911844,
                -0.91197,
                -0.911592,
                -0.911278,
                -0.911089,
                -0.911529,
                -0.91197,
                -0.912095,
                -0.912347,
                -0.911907,
                -0.911781,
                -0.911781,
                -0.911655,
                -0.911655,
                -0.911341,
                -0.911278,
                -0.911152,
                -0.911341,
                -0.911844,
                -0.912347,
                -0.912536,
                -0.911781,
                -0.911466,
                -0.911466,
                -0.911718,
                -0.911907,
                -0.911781,
                -0.911278,
                -0.911089,
                -0.911215,
                -0.91197,
                -0.912536,
                -0.912347,
                -0.91197,
                -0.911529,
                -0.911529,
                -0.91197,
                -0.912032,
                -0.911718,
                -0.911278,
                -0.911215,
                -0.911341,
                -0.91197,
                -0.91241,
                -0.912347,
                -0.911907,
                -0.911592,
                -0.911781,
                -0.911844,
                -0.91197,
                -0.911718,
                -0.911152,
                -0.911026,
                -0.911341,
                -0.91197,
                -0.91241,
                -0.912347,
                -0.911844,
                -0.911592,
                -0.911844,
                -0.911907,
                -0.912032,
                -0.911718,
                -0.911278,
                -0.911089,
                -0.911341,
                -0.912032,
                -0.912347,
                -0.912347,
                -0.911781,
                -0.911529,
                -0.911718,
                -0.912032,
                -0.911907,
                -0.911718,
                -0.911215,
                -0.910963,
                -0.911404,
                -0.911781,
                -0.912284,
                -0.912221,
                -0.911844,
                -0.911466,
                -0.911592,
                -0.911907,
                -0.91197,
                -0.911718,
                -0.911152,
                -0.910837,
                -0.911215,
                -0.912032,
                -0.91241,
                -0.912158,
                -0.911781,
                -0.911655,
                -0.911781,
                -0.91197,
                -0.911907,
                -0.911529,
                -0.911215,
                -0.9109,
                -0.911089,
                -0.911844,
                -0.912284,
                -0.912158,
                -0.911781,
                -0.911529,
                -0.911655,
                -0.911907,
                -0.911907,
                -0.911781,
                -0.911215,
                -0.9109,
                -0.911215,
                -0.91197,
                -0.91241,
                -0.912284,
                -0.911718,
                -0.911529,
                -0.911655,
                -0.91197,
                -0.91197,
                -0.911655,
                -0.911089,
                -0.910586,
                -0.911152,
                -0.91197,
                -0.912347,
                -0.912095,
                -0.911781,
                -0.911592,
                -0.911844,
                -0.912032,
                -0.91197,
                -0.911718,
                -0.910963,
                -0.910775,
                -0.911089,
                -0.911844,
                -0.912158,
                -0.912032,
                -0.911718,
                -0.911529,
                -0.911718,
                -0.91197,
                -0.912032,
                -0.911781,
                -0.911215,
                -0.910837,
                -0.911278,
                -0.911844,
                -0.912095,
                -0.912221,
                -0.911844,
                -0.911592,
                -0.911718,
                -0.91197,
                -0.912158,
                -0.911844,
                -0.911089,
                -0.910775,
                -0.911152,
                -0.911907,
                -0.912221,
                -0.912284,
                -0.911655,
                -0.911592,
                -0.911844,
                -0.912032,
                -0.912032,
                -0.911718,
                -0.911089,
                -0.910837,
                -0.911215,
                -0.911844,
                -0.912158,
                -0.912158,
                -0.911844,
                -0.911718,
                -0.911781,
                -0.912032,
                -0.912158,
                -0.911781,
                -0.910963,
                -0.910837,
                -0.911152,
                -0.911781,
                -0.912095,
                -0.91197,
                -0.911718,
                -0.911718,
                -0.911844,
                -0.91197,
                -0.912032,
                -0.911718,
                -0.911026,
                -0.9109,
                -0.911278,
                -0.911844,
                -0.912032,
                -0.912032,
                -0.911718,
                -0.911529,
                -0.911655,
                -0.911907,
                -0.912032,
                -0.911655,
                -0.910963,
                -0.910775,
                -0.911152,
                -0.911844,
                -0.912095,
                -0.912032,
                -0.911844,
                -0.911592,
                -0.911844,
                -0.912032,
                -0.912032,
                -0.911592,
                -0.911089,
                -0.910712,
                -0.911215,
                -0.911718,
                -0.912032,
                -0.91197,
                -0.911718,
                -0.911466,
                -0.911718,
                -0.912032,
                -0.912032,
                -0.911592,
                -0.911026,
                -0.9109,
                -0.911089,
                -0.911844,
                -0.912032,
                -0.912032,
                -0.911655,
                -0.911529,
                -0.911718,
                -0.912032,
                -0.912095,
                -0.911718,
                -0.910963,
                -0.910649,
                -0.911089,
                -0.911844,
                -0.912032,
                -0.911844,
                -0.911592,
                -0.911529,
                -0.911844,
                -0.912032,
                -0.912032,
                -0.911592,
                -0.910963,
                -0.910837,
                -0.911341,
                -0.911781,
                -0.912032,
                -0.912032,
                -0.911655,
                -0.911592,
                -0.911718,
                -0.912032,
                -0.912032,
                -0.911592,
                -0.9109,
                -0.910712,
                -0.911278,
                -0.911781,
                -0.912032,
                -0.912032,
                -0.911655,
                -0.911655,
                -0.911844,
                -0.912158,
                -0.912158,
                -0.911781,
                -0.910963,
                -0.910837,
                -0.911152,
                -0.911718,
                -0.912032,
                -0.911844,
                -0.911466,
                -0.911404,
                -0.911781,
                -0.912095,
                -0.912095,
                -0.911655,
                -0.911089,
                -0.9109,
                -0.911341,
                -0.911781,
                -0.912032,
                -0.91197,
                -0.911655,
                -0.911529,
                -0.911718,
                -0.912032,
                -0.912158,
                -0.911529,
                -0.910963,
                -0.9109,
                -0.911215,
                -0.911781,
                -0.912032,
                -0.911907,
                -0.911592,
                -0.911655,
                -0.911781,
                -0.912221,
                -0.912158,
                -0.911655,
                -0.911089,
                -0.910775,
                -0.911152,
                -0.911718,
                -0.91197,
                -0.911781,
                -0.911466,
                -0.911592,
                -0.911844,
                -0.912158,
                -0.912158,
                -0.911718,
                -0.911152,
                -0.9109,
                -0.911215,
                -0.911718,
                -0.912032,
                -0.911844,
                -0.911718,
                -0.911529,
                -0.911655,
                -0.912158,
                -0.912095,
                -0.911718,
                -0.911152,
                -0.9109,
                -0.911215,
                -0.911844,
                -0.912032,
                -0.911781,
                -0.911655,
                -0.911655,
                -0.91197,
                -0.912221,
                -0.912095,
                -0.911655,
                -0.911089,
                -0.910963,
                -0.911278,
                -0.911781,
                -0.911844,
                -0.911907,
                -0.911655,
                -0.911466,
                -0.911844,
                -0.912221,
                -0.912158,
                -0.911781,
                -0.911215,
                -0.9109,
                -0.911152,
                -0.911781,
                -0.91197,
                -0.91197,
                -0.911655,
                -0.911529,
                -0.911907,
                -0.912284,
                -0.912221,
                -0.911718,
                -0.911026,
                -0.9109,
                -0.911341,
                -0.911718,
                -0.91197,
                -0.911844,
                -0.911592,
                -0.911655,
                -0.912032,
                -0.912284,
                -0.912095,
                -0.911718,
                -0.911026,
                -0.910963,
                -0.911278,
                -0.911592,
                -0.911907,
                -0.911781,
                -0.911466,
                -0.911592,
                -0.911907,
                -0.912158,
                -0.912221,
                -0.911655,
                -0.911089,
                -0.910963,
                -0.911278,
                -0.911592,
                -0.912032,
                -0.911844,
                -0.911529,
                -0.911592,
                -0.911907,
                -0.912221,
                -0.912158,
                -0.911655,
                -0.911152,
                -0.910963,
                -0.911215,
                -0.911592,
                -0.911844,
                -0.911844,
                -0.911529,
                -0.911592,
                -0.91197,
                -0.912158,
                -0.912347,
                -0.911592,
                -0.911089,
                -0.911089,
                -0.911278,
                -0.911718,
                -0.912032,
                -0.911781,
                -0.911529,
                -0.911781,
                -0.911907,
                -0.912221,
                -0.912158,
                -0.911592,
                -0.911152,
                -0.910963,
                -0.911152,
                -0.911592,
                -0.912032,
                -0.911781,
                -0.911592,
                -0.911466,
                -0.911907,
                -0.91241,
                -0.912284,
                -0.911718,
                -0.911152,
                -0.910963,
                -0.911152,
                -0.911781,
                -0.911844,
                -0.911718,
                -0.911529,
                -0.911404,
                -0.91197,
                -0.912284,
                -0.912095,
                -0.911529,
                -0.911152,
                -0.910963,
                0,
                0,
                0,
                0,
                0,
                0,
                0,
                0,
                0,
                0,
                0,
                0,
                0,
                0,
                0,
                0,
        };
        double cutArr[] = new double[POINT_COUNT-2];
        for (int i = 0; i < POINT_COUNT-2; i++) {
            cutArr[i] = a[i];
        }
        new FFT(cutArr);
    }
}


